X-ray (ID 01) / Crystal angle ? _c,X-ray (ID 01) / Impulse Imp
? _c/°,Imp/# / s
,
4,4984
5,1091
6,441
7,409
8,391
9,334
10,311
11,326
12,1344
13,292
14,296
15,179
16,172
17,170
18,139
19,131
20,117
21,113
22,112
23,131
24,107
25,325
26,125
27,120
28,527
29,113
30,110
31,84
32,106
33,90
34,98
35,98
